#Rx
# X(m), Y(m), Z(m), Distance(m), Power (dBm) Phase (deg)
1 -1.07237e+07 3.40856e+06 2 0 -99.2129 27.6869
2 -1.07237e+07 3.40856e+06 2 5 -92.4297 1.8976
3 -1.07237e+07 3.40856e+06 2 10 -90.6114 29.5949
4 -1.07237e+07 3.40856e+06 2 15 -94.7699 49.5408
5 -1.07237e+07 3.40857e+06 2 20 -97.404 1.35075
6 -1.07237e+07 3.40857e+06 2 25 -94.3801 11.0056
7 -1.07237e+07 3.40857e+06 2 30 -90.1013 16.2651
8 -1.07237e+07 3.40858e+06 2 35 -90.5822 47.5902
9 -1.07237e+07 3.40858e+06 2 40 -92.9561 51.1582
10 -1.07237e+07 3.40858e+06 2 45 -92.3006 75.7037
11 -1.07237e+07 3.40858e+06 2 50 -97.5335 76.1954
12 -1.07238e+07 3.40859e+06 2 55 -95.062 72.2058
13 -1.07238e+07 3.40859e+06 2 60 -96.8821 59.8216
14 -1.07238e+07 3.40859e+06 2 65 -94.046 42.279
15 -1.07238e+07 3.4086e+06 2 70 -92.0467 67.6595
16 -1.07238e+07 3.4086e+06 2 75 -95.7507 50.1003
17 -1.07238e+07 3.4086e+06 2 80 -93.655 49.817
18 -1.07238e+07 3.4086e+06 2 85 -97.1637 80.4903
19 -1.07238e+07 3.40861e+06 2 90 -92.9589 99.328
20 -1.07238e+07 3.40861e+06 2 95 -92.4136 88.3334
21 -1.07238e+07 3.40861e+06 2 100 -92.9793 77.5593
22 -1.07238e+07 3.40862e+06 2 105 -91.1326 85.3935
23 -1.07238e+07 3.40862e+06 2 110 -88.3741 102.883
24 -1.07238e+07 3.40862e+06 2 115 -75.7364 -15.3472
25 -1.07238e+07 3.40862e+06 2 120 -77.9484 -47.9324
26 -1.07238e+07 3.40863e+06 2 125 -78.7592 -130.127
27 -1.07238e+07 3.40863e+06 2 130 -75.7161 161.758
28 -1.07238e+07 3.40863e+06 2 135 -60.2825 14.303
29 -1.07238e+07 3.40864e+06 2 140 -59.2891 145.762
30 -1.07238e+07 3.40864e+06 2 145 -60.0117 -106.393
31 -1.07238e+07 3.40864e+06 2 150 -61.1669 -36.4878
32 -1.07238e+07 3.40864e+06 2 155 -61.1475 -5.66364
33 -1.07238e+07 3.40865e+06 2 160 -52.8232 -21.6143
34 -1.07238e+07 3.40865e+06 2 165 -57.5593 58.2324
35 -1.07238e+07 3.40865e+06 2 170 -56.5329 177.638
36 -1.07238e+07 3.40866e+06 2 175 -55.9269 -148.804
37 -1.07239e+07 3.40866e+06 2 180 -53.5661 -90.8581
38 -1.07239e+07 3.40866e+06 2 185 -66.5577 -143.089
39 -1.07239e+07 3.40866e+06 2 190 -54.8217 179.292
40 -1.07239e+07 3.40867e+06 2 195 -53.773 160.159
41 -1.07239e+07 3.40867e+06 2 200 -58.5618 134.935
42 -1.07239e+07 3.40867e+06 2 205 -67.7666 -122.041
43 -1.07239e+07 3.40867e+06 2 210 -61.8221 -101.696
44 -1.07239e+07 3.40867e+06 2 215 -55.7838 -141.04
45 -1.07239e+07 3.40867e+06 2 220 -54.327 142.961
46 -1.07239e+07 3.40866e+06 2 225 -57.1301 37.0865
47 -1.07239e+07 3.40866e+06 2 230 -59.7171 -72.9898
48 -1.07239e+07 3.40866e+06 2 235 -57.6597 -139.862
49 -1.07239e+07 3.40865e+06 2 240 -53.1805 149.844
50 -1.07239e+07 3.40865e+06 2 245 -52.4343 60.8734
51 -1.07239e+07 3.40865e+06 2 250 -55.4531 -23.3726
52 -1.07239e+07 3.40864e+06 2 255 -56.0493 -124.772
53 -1.07239e+07 3.40864e+06 2 260 -53.7746 126.844
54 -1.07239e+07 3.40864e+06 2 265 -51.2609 31.0324
55 -1.07239e+07 3.40863e+06 2 270 -52.7034 -61.0766
56 -1.07239e+07 3.40863e+06 2 275 -53.3295 -167.654
57 -1.07239e+07 3.40863e+06 2 280 -55.2599 85.1164
58 -1.07239e+07 3.40862e+06 2 285 -55.6231 -42.6735
59 -1.07239e+07 3.40862e+06 2 290 -53.4291 -165.251
60 -1.07239e+07 3.40862e+06 2 295 -51.9375 71.1831
61 -1.07239e+07 3.40861e+06 2 300 -52.2571 -52.5356
62 -1.07239e+07 3.40861e+06 2 305 -54.1871 -179.435
63 -1.0724e+07 3.40861e+06 2 310 -58.2571 34.6225
64 -1.0724e+07 3.4086e+06 2 315 -61.6554 -140.551
65 -1.0724e+07 3.4086e+06 2 320 -65.0584 24.4096
66 -1.0724e+07 3.4086e+06 2 325 -68.3528 152.68
67 -1.0724e+07 3.4086e+06 2 330 -86.539 158.583
68 -1.0724e+07 3.4086e+06 2 335 -88.1346 119.306
69 -1.0724e+07 3.40861e+06 2 340 -88.7088 59.6249
70 -1.0724e+07 3.40861e+06 2 345 -81.5983 150.189
71 -1.0724e+07 3.40861e+06 2 350 -84.3635 -130.495
72 -1.0724e+07 3.40862e+06 2 355 -89.0757 -96.9586
73 -1.0724e+07 3.40862e+06 2 360 -94.7908 158.468
74 -1.0724e+07 3.40862e+06 2 365 -79.7568 -51.3743
75 -1.0724e+07 3.40863e+06 2 370 -78.6567 124.727
76 -1.0724e+07 3.40863e+06 2 375 -75.6848 -143.705
77 -1.0724e+07 3.40864e+06 2 380 -80.0952 -91.114
78 -1.0724e+07 3.40864e+06 2 385 -89.8242 129.045
79 -1.0724e+07 3.40864e+06 2 390 -73.1685 39.4413
80 -1.0724e+07 3.40865e+06 2 395 -68.3737 -69.5479
81 -1.0724e+07 3.40865e+06 2 400 -64.7243 103.38
82 -1.0724e+07 3.40865e+06 2 405 -60.4694 -103.084
83 -1.0724e+07 3.40866e+06 2 410 -60.5217 -0.974936
84 -1.0724e+07 3.40866e+06 2 415 -61.3683 97.3999
85 -1.0724e+07 3.40866e+06 2 420 -63.1403 -145.618
86 -1.0724e+07 3.40867e+06 2 425 -69.915 -33.832
87 -1.0724e+07 3.40867e+06 2 430 -63.0702 -88.9599
88 -1.0724e+07 3.40867e+06 2 435 -59.8443 12.8914
89 -1.0724e+07 3.40868e+06 2 440 -58.9118 89.247
90 -1.07241e+07 3.40868e+06 2 445 -61.2933 145.689
91 -1.07241e+07 3.40868e+06 2 450 -72.9893 139.452
92 -1.07241e+07 3.40869e+06 2 455 -72.0894 -38.4366
93 -1.07241e+07 3.40869e+06 2 460 -62.7486 35.0714
94 -1.07241e+07 3.40868e+06 2 465 -63.0924 -92.1704
95 -1.07241e+07 3.40868e+06 2 470 -64.4557 151.01
96 -1.07241e+07 3.40868e+06 2 475 -64.4392 11.8942
97 -1.07241e+07 3.40867e+06 2 480 -65.6281 -100.851
98 -1.07241e+07 3.40867e+06 2 485 -74.0656 56.4624
99 -1.07241e+07 3.40867e+06 2 490 -80.1275 -160.98
100 -1.07241e+07 3.40866e+06 2 495 -83.9702 -108.386
101 -1.07241e+07 3.40866e+06 2 500 -83.5784 -77.8245
102 -1.07241e+07 3.40866e+06 2 505 -90.3324 -31.6853
103 -1.07241e+07 3.40865e+06 2 510 -84.1762 23.7866
104 -1.07241e+07 3.40865e+06 2 515 -98.5242 -19.5437
105 -1.07241e+07 3.40865e+06 2 520 -87.748 -114.353
106 -1.07241e+07 3.40864e+06 2 525 -83.4478 55.4456
107 -1.07241e+07 3.40864e+06 2 530 -79.9753 -112.331
108 -1.07241e+07 3.40864e+06 2 535 -90.4646 -166.958
109 -1.07241e+07 3.40863e+06 2 540 -79.7502 -13.0594
110 -1.07241e+07 3.40863e+06 2 545 -77.3496 116.014
111 -1.07241e+07 3.40863e+06 2 550 -80.322 155.274
112 -1.07241e+07 3.40863e+06 2 555 -77.6185 11.3162
113 -1.07241e+07 3.40862e+06 2 560 -71.2388 -72.306
114 -1.07241e+07 3.40862e+06 2 565 -62.8509 155.069
115 -1.07241e+07 3.40862e+06 2 570 -63.7086 -142.606
116 -1.07242e+07 3.40861e+06 2 575 -68.4441 -15.0998
117 -1.07242e+07 3.40861e+06 2 580 -79.482 94.1102
118 -1.07242e+07 3.40861e+06 2 585 -73.9734 31.8406
119 -1.07242e+07 3.4086e+06 2 590 -78.4139 155.397
120 -1.07242e+07 3.4086e+06 2 595 -74.6559 39.2615
121 -1.07242e+07 3.4086e+06 2 600 -62.3778 96.6478
122 -1.07242e+07 3.40859e+06 2 605 -59.4305 173.305
123 -1.07242e+07 3.40859e+06 2 610 -69.7772 -67.6332
124 -1.07242e+07 3.40859e+06 2 615 -59.0693 -108.003
125 -1.07242e+07 3.40858e+06 2 620 -64.5003 140.951
126 -1.07242e+07 3.40858e+06 2 625 -71.4666 112.125
127 -1.07242e+07 3.40858e+06 2 630 -68.9568 1.23264
128 -1.07242e+07 3.40857e+06 2 635 -73.4298 -123.205
129 -1.07242e+07 3.40857e+06 2 640 -76.0764 10.4884
130 -1.07242e+07 3.40857e+06 2 645 -80.6879 93.4509
131 -1.07242e+07 3.40857e+06 2 650 -83.4111 35.8746
132 -1.07242e+07 3.40856e+06 2 655 -84.1323 -138.206
133 -1.07242e+07 3.40856e+06 2 660 -84.1566 -179.87
134 -1.07242e+07 3.40856e+06 2 665 -86.013 -156.366
135 -1.07242e+07 3.40855e+06 2 670 -93.6833 95.8715
136 -1.07242e+07 3.40855e+06 2 675 -79.4704 -121.471
137 -1.07242e+07 3.40855e+06 2 680 -84.9822 -97.9762
138 -1.07242e+07 3.40854e+06 2 685 -83.4296 -126.573
139 -1.07242e+07 3.40854e+06 2 690 -81.6948 -166.741
140 -1.07242e+07 3.40854e+06 2 695 -87.0638 -25.7099
141 -1.07242e+07 3.40853e+06 2 700 -82.9675 -111.378
142 -1.07243e+07 3.40853e+06 2 705 -88.1137 -59.826
143 -1.07243e+07 3.40853e+06 2 710 -96.653 -45.911
144 -1.07243e+07 3.40852e+06 2 715 -104.727 -46.147
145 -1.07243e+07 3.40852e+06 2 720 -88.2878 -88.5516
146 -1.07243e+07 3.40852e+06 2 725 -90.8177 -16.4543
147 -1.07243e+07 3.40852e+06 2 730 -88.5642 -92.8966
148 -1.07243e+07 3.40851e+06 2 735 -85.2784 -59.8997
149 -1.07243e+07 3.40851e+06 2 740 -83.3747 -71.218
150 -1.07243e+07 3.40851e+06 2 745 -83.7478 -106.288
151 -1.07243e+07 3.4085e+06 2 750 -92.761 -59.7564
152 -1.07243e+07 3.4085e+06 2 755 -83.3043 -28.2182
153 -1.07243e+07 3.4085e+06 2 760 -88.3793 -40.7539
154 -1.07243e+07 3.40849e+06 2 765 -84.7593 -23.172
155 -1.07243e+07 3.40849e+06 2 770 -91.6911 -10.6463
156 -1.07243e+07 3.40849e+06 2 775 -96.8253 57.8604
157 -1.07243e+07 3.40848e+06 2 780 -90.7673 0.334863
158 -1.07243e+07 3.40848e+06 2 785 -86.8122 -23.7261
159 -1.07243e+07 3.40848e+06 2 790 -93.297 13.0239
160 -1.07243e+07 3.40847e+06 2 795 -89.371 -71.9416
161 -1.07243e+07 3.40847e+06 2 800 -96.6669 -25.3341
162 -1.07243e+07 3.40847e+06 2 805 -102.521 40.1115
163 -1.07243e+07 3.40846e+06 2 810 -103.397 -49.3172
164 -1.07243e+07 3.40846e+06 2 815 -102.665 25.9774
165 -1.07243e+07 3.40846e+06 2 820 -100.201 112.846
166 -1.07243e+07 3.40845e+06 2 825 -99.22 -31.0541
167 -1.07243e+07 3.40845e+06 2 830 -99.7521 160.608
168 -1.07243e+07 3.40845e+06 2 835 -95.3296 162.557
169 -1.07243e+07 3.40844e+06 2 840 -100.752 113.424
170 -1.07243e+07 3.40844e+06 2 845 -98.7761 -32.485
171 -1.07243e+07 3.40844e+06 2 850 -87.5007 -85.4765
172 -1.07243e+07 3.40843e+06 2 855 -92.1169 91.8129
173 -1.07243e+07 3.40843e+06 2 860 -86.4675 -150.551
