#Rx
# X(m), Y(m), Z(m), Distance(m), Power (dBm) Phase (deg) EQ_1_H_Rx1_900 MHz_Tx2
1 -1.07237e+07 3.40855e+06 2 0 -93.7322 -0.544431
2 -1.07237e+07 3.40855e+06 2 5 -92.2478 -11.2342
3 -1.07237e+07 3.40855e+06 2 10 -91.8625 -24.7263
4 -1.07237e+07 3.40854e+06 2 15 -91.1434 -37.1327
5 -1.07237e+07 3.40854e+06 2 20 -91.0866 -55.6911
6 -1.07237e+07 3.40854e+06 2 25 -91.9153 -63.9967
7 -1.07237e+07 3.40853e+06 2 30 -90.5779 -74.2554
8 -1.07237e+07 3.40853e+06 2 35 -90.4766 -91.5663
9 -1.07237e+07 3.40853e+06 2 40 -89.8089 -107.114
10 -1.07237e+07 3.40852e+06 2 45 -91.3312 -124.812
11 -1.07237e+07 3.40852e+06 2 50 -89.7112 -126.894
12 -1.07237e+07 3.40852e+06 2 55 -90.2619 -153.451
13 -1.07238e+07 3.40851e+06 2 60 -89.6301 -164.265
14 -1.07238e+07 3.40851e+06 2 65 -91.659 -171.665
15 -1.07238e+07 3.40851e+06 2 70 -89.3355 157.826
16 -1.07238e+07 3.4085e+06 2 75 -90.6822 160.196
17 -1.07238e+07 3.4085e+06 2 80 -92.9316 146.594
18 -1.07238e+07 3.4085e+06 2 85 -93.7078 111.741
19 -1.07238e+07 3.4085e+06 2 90 -90.4838 101.326
20 -1.07238e+07 3.40849e+06 2 95 -83.0161 113.971
21 -1.07238e+07 3.40849e+06 2 100 -87.1272 5.14065
22 -1.07238e+07 3.40849e+06 2 105 -83.5307 103.712
23 -1.07238e+07 3.40848e+06 2 110 -84.7931 -34.5318
24 -1.07238e+07 3.40848e+06 2 115 -82.3613 35.5093
25 -1.07238e+07 3.40848e+06 2 120 -97.4485 -175.276
26 -1.07238e+07 3.40847e+06 2 125 -80.6663 -56.9287
27 -1.07238e+07 3.40847e+06 2 130 -83.0471 -32.4779
28 -1.07238e+07 3.40847e+06 2 135 -90.1724 -57.5315
29 -1.07238e+07 3.40846e+06 2 140 -92.3059 -134.432
30 -1.07238e+07 3.40846e+06 2 145 -90.047 166.248
31 -1.07238e+07 3.40846e+06 2 150 -87.6851 125.676
32 -1.07238e+07 3.40845e+06 2 155 -88.024 90.7477
33 -1.07238e+07 3.40845e+06 2 160 -85.5559 53.0348
34 -1.07238e+07 3.40845e+06 2 165 -88.3816 9.62447
35 -1.07238e+07 3.40844e+06 2 170 -82.2573 55.3012
36 -1.07238e+07 3.40844e+06 2 175 -80.4027 -86.4702
37 -1.07238e+07 3.40844e+06 2 180 -83.2609 -41.1532
38 -1.07238e+07 3.40843e+06 2 185 -83.9254 65.5755
39 -1.07239e+07 3.40843e+06 2 190 -79.829 67.5965
40 -1.07239e+07 3.40843e+06 2 195 -85.8888 51.5533
41 -1.07239e+07 3.40842e+06 2 200 -83.0689 13.953
42 -1.07239e+07 3.40842e+06 2 205 -79.0631 -79.7504
43 -1.07239e+07 3.40842e+06 2 210 -85.0649 -62.6027
44 -1.07239e+07 3.40841e+06 2 215 -80.8829 69.9027
45 -1.07239e+07 3.40841e+06 2 220 -83.5937 14.0716
46 -1.07239e+07 3.40841e+06 2 225 -80.9498 -44.9138
47 -1.07239e+07 3.4084e+06 2 230 -75.8255 -173.409
48 -1.07239e+07 3.4084e+06 2 235 -91.3549 117.982
49 -1.07239e+07 3.4084e+06 2 240 -72.8436 -103.773
50 -1.07239e+07 3.40839e+06 2 245 -74.3531 172.087
51 -1.07239e+07 3.40839e+06 2 250 -74.1827 -14.3459
52 -1.07239e+07 3.40839e+06 2 255 -73.3372 160.937
53 -1.07239e+07 3.40838e+06 2 260 -82.1267 -45.9398
54 -1.07239e+07 3.40838e+06 2 265 -72.5219 90.7417
55 -1.07239e+07 3.40838e+06 2 270 -70.5403 -153.036
56 -1.07239e+07 3.40837e+06 2 275 -69.4023 -83.5486
57 -1.07239e+07 3.40837e+06 2 280 -70.5111 -110.116
58 -1.07239e+07 3.40837e+06 2 285 -67.9856 -36.0453
59 -1.07239e+07 3.40836e+06 2 290 -73.9408 -77.4085
60 -1.07239e+07 3.40836e+06 2 295 -66.8687 95.634
61 -1.07239e+07 3.40836e+06 2 300 -66.8953 118.427
62 -1.07239e+07 3.40835e+06 2 305 -66.4755 74.4906
63 -1.07239e+07 3.40835e+06 2 310 -62.9207 -134.093
64 -1.07239e+07 3.40835e+06 2 315 -60.1593 147.992
65 -1.07239e+07 3.40834e+06 2 320 -54.9427 120.342
66 -1.0724e+07 3.40834e+06 2 325 -50.0797 36.7935
67 -1.0724e+07 3.40834e+06 2 330 -43.7874 114.502
68 -1.0724e+07 3.40833e+06 2 335 -38.5457 -171.095
69 -1.0724e+07 3.40833e+06 2 340 -36.21 93.7103
70 -1.0724e+07 3.40833e+06 2 345 -40.2261 79.8098
71 -1.0724e+07 3.40832e+06 2 350 -48.6267 95.8441
72 -1.0724e+07 3.40832e+06 2 355 -51.7179 156.277
73 -1.0724e+07 3.40832e+06 2 360 -57.5964 68.2957
74 -1.0724e+07 3.40832e+06 2 365 -59.4651 104.016
75 -1.0724e+07 3.40831e+06 2 370 -71.9992 53.4866
76 -1.0724e+07 3.40831e+06 2 375 -70.429 -174.232
77 -1.0724e+07 3.40831e+06 2 380 -69.6942 159.81
78 -1.0724e+07 3.4083e+06 2 385 -83.5315 -135.499
79 -1.0724e+07 3.4083e+06 2 390 -76.2259 -122.723
80 -1.0724e+07 3.4083e+06 2 395 -80.9721 117.031
81 -1.0724e+07 3.40829e+06 2 400 -79.0461 -163.444
82 -1.0724e+07 3.40829e+06 2 405 -80.5346 -123.945
83 -1.0724e+07 3.40829e+06 2 410 -83.0351 -72.9413
84 -1.0724e+07 3.40828e+06 2 415 -78.0148 148.532
85 -1.0724e+07 3.40828e+06 2 420 -75.8134 17.7212
86 -1.0724e+07 3.40828e+06 2 425 -83.7482 -166.051
87 -1.0724e+07 3.40827e+06 2 430 -81.5824 132.339
88 -1.0724e+07 3.40827e+06 2 435 -84.6331 95.4048
89 -1.0724e+07 3.40827e+06 2 440 -77.1818 133.663
90 -1.0724e+07 3.40826e+06 2 445 -80.9236 -77.3898
91 -1.0724e+07 3.40826e+06 2 450 -92.51 117.154
92 -1.07241e+07 3.40826e+06 2 455 -76.9532 -166.505
93 -1.07241e+07 3.40825e+06 2 460 -87.8475 51.2305
94 -1.07241e+07 3.40825e+06 2 465 -81.1433 39.8925
95 -1.07241e+07 3.40825e+06 2 470 -84.2488 106.189
96 -1.07241e+07 3.40824e+06 2 475 -81.9433 -168.43
97 -1.07241e+07 3.40824e+06 2 480 -93.8122 69.8815
98 -1.07241e+07 3.40824e+06 2 485 -85.9283 -120.763
99 -1.07241e+07 3.40823e+06 2 490 -77.679 73.8632
100 -1.07241e+07 3.40823e+06 2 495 -86.5637 -165.082
101 -1.07241e+07 3.40823e+06 2 500 -87.7165 -145.015
102 -1.07241e+07 3.40822e+06 2 505 -87.1092 -61.748
103 -1.07241e+07 3.40822e+06 2 510 -86.8173 -35.1617
104 -1.07241e+07 3.40822e+06 2 515 -85.6207 -31.9863
105 -1.07241e+07 3.40821e+06 2 520 -81.6276 48.4329
106 -1.07241e+07 3.40821e+06 2 525 -82.0792 75.1527
107 -1.07241e+07 3.40821e+06 2 530 -88.9274 -173.438
108 -1.07241e+07 3.4082e+06 2 535 -86.4089 -146.203
109 -1.07241e+07 3.4082e+06 2 540 -84.6638 -51.6037
110 -1.07241e+07 3.4082e+06 2 545 -83.5426 26.0297
111 -1.07241e+07 3.4082e+06 2 550 -82.2167 93.3127
112 -1.07241e+07 3.40821e+06 2 555 -88.4978 38.1897
113 -1.07241e+07 3.40821e+06 2 560 -87.086 4.29425
114 -1.07241e+07 3.40822e+06 2 565 -92.6562 55.2843
115 -1.07241e+07 3.40822e+06 2 570 -106.908 2.32351
116 -1.07241e+07 3.40822e+06 2 575 -99.0532 73.0391
117 -1.07241e+07 3.40823e+06 2 580 -104.386 -143.241
118 -1.07241e+07 3.40823e+06 2 585 -116.526 -112.143
119 -1.07241e+07 3.40824e+06 2 590 -101.26 39.9102
120 -1.07242e+07 3.40824e+06 2 595 -101.627 -20.9881
121 -1.07242e+07 3.40824e+06 2 600 -101.429 -143.841
122 -1.07242e+07 3.40825e+06 2 605 -102.703 25.3144
123 -1.07242e+07 3.40825e+06 2 610 -99.5407 130.86
124 -1.07242e+07 3.40825e+06 2 615 -108.5 -21.2212
125 -1.07242e+07 3.40826e+06 2 620 -125.288 -157.737
126 -1.07242e+07 3.40826e+06 2 625 -110.08 -136.197
127 -1.07242e+07 3.40827e+06 2 630 -117.148 95.0959
128 -1.07242e+07 3.40827e+06 2 635 -116.225 61.6141
129 -1.07242e+07 3.40827e+06 2 640 -131.005 115.149
130 -1.07242e+07 3.40828e+06 2 645 -120.793 119.306
131 -1.07242e+07 3.40828e+06 2 650 -119.747 148.453
132 -1.07242e+07 3.40828e+06 2 655 -112.702 -127.185
133 -1.07242e+07 3.40829e+06 2 660 -111.458 -18.0364
134 -1.07242e+07 3.40829e+06 2 665 -111.423 8.71236
135 -1.07242e+07 3.4083e+06 2 670 -115.276 177.87
136 -1.07242e+07 3.4083e+06 2 675 -110.565 -104.029
137 -1.07242e+07 3.4083e+06 2 680 -111.14 177.416
138 -1.07242e+07 3.40831e+06 2 685 -112.914 125.094
139 -1.07242e+07 3.40831e+06 2 690 -113.551 -21.5574
140 -1.07242e+07 3.40832e+06 2 695 -127.702 120.816
141 -1.07242e+07 3.40832e+06 2 700 -124.897 144.07
142 -1.07242e+07 3.40832e+06 2 705 -135.915 -36.6596
143 -1.07242e+07 3.40833e+06 2 710 -110.849 9.58769
144 -1.07242e+07 3.40833e+06 2 715 -115.316 -169.655
145 -1.07242e+07 3.40833e+06 2 720 -111.865 -131.635
146 -1.07242e+07 3.40834e+06 2 725 -130.637 2.5365
147 -1.07242e+07 3.40834e+06 2 730 -134.611 12.3063
148 -1.07242e+07 3.40835e+06 2 735 -133.816 31.4267
149 -1.07242e+07 3.40835e+06 2 740 -134.654 57.9455
150 -1.07242e+07 3.40835e+06 2 745 -115.002 -4.96434
151 -1.07243e+07 3.40836e+06 2 750 -134.075 114.724
152 -1.07243e+07 3.40836e+06 2 755 -138.167 140.815
153 -1.07243e+07 3.40837e+06 2 760 -153.999 132.222
154 -1.07243e+07 3.40837e+06 2 765 -145.269 30.0722
155 -1.07243e+07 3.40837e+06 2 770 -133.939 52.9467
156 -1.07243e+07 3.40838e+06 2 775 -132.47 94.276
157 -1.07243e+07 3.40838e+06 2 780 -133.063 113.699
158 -1.07243e+07 3.40838e+06 2 785 -135.136 126.003
159 -1.07243e+07 3.40839e+06 2 790 -136.91 158.593
160 -1.07243e+07 3.40839e+06 2 795 -137.303 152.955
161 -1.07243e+07 3.4084e+06 2 800 -137.45 159.743
162 -1.07243e+07 3.4084e+06 2 805 -138.368 164.903
163 -1.07243e+07 3.4084e+06 2 810 -116.207 -54.4134
164 -1.07243e+07 3.40841e+06 2 815 -137.612 170
165 -1.07243e+07 3.40841e+06 2 820 -137.949 -177.229
166 -1.07243e+07 3.40842e+06 2 825 -106.701 87.3061
167 -1.07243e+07 3.40842e+06 2 830 -106.3 126.949
168 -1.07243e+07 3.40842e+06 2 835 -120.776 -139.751
