#Rx
# X(m), Y(m), Z(m), Distance(m), Power (dBm) Phase (deg) EQ_1_H_Rx2_900 MHz_Tx2
1 -1.07237e+07 3.40856e+06 2 0 -91.7465 47.6367
2 -1.07237e+07 3.40855e+06 2 5 -91.38 33.2939
3 -1.07237e+07 3.40855e+06 2 10 -90.6941 20.1645
4 -1.07237e+07 3.40855e+06 2 15 -90.7887 3.49965
5 -1.07237e+07 3.40854e+06 2 20 -91.1261 -2.55609
6 -1.07237e+07 3.40854e+06 2 25 -89.7536 -14.9354
7 -1.07237e+07 3.40854e+06 2 30 -89.9095 -31.7152
8 -1.07237e+07 3.40853e+06 2 35 -89.6809 -46.0181
9 -1.07237e+07 3.40853e+06 2 40 -91.1586 -58.8879
10 -1.07237e+07 3.40853e+06 2 45 -89.4617 -65.0265
11 -1.07237e+07 3.40852e+06 2 50 -90.7794 -91.7189
12 -1.07237e+07 3.40852e+06 2 55 -90.5504 -100.122
13 -1.07238e+07 3.40852e+06 2 60 -92.6269 -110.144
14 -1.07238e+07 3.40851e+06 2 65 -90.6763 -142.859
15 -1.07238e+07 3.40851e+06 2 70 -93.1464 -136.637
16 -1.07238e+07 3.40851e+06 2 75 -95.1692 -171.13
17 -1.07238e+07 3.4085e+06 2 80 -93.2174 156.784
18 -1.07238e+07 3.4085e+06 2 85 -90.7345 157.132
19 -1.07238e+07 3.4085e+06 2 90 -92.3443 11.1722
20 -1.07238e+07 3.40849e+06 2 95 -84.0828 172.298
21 -1.07238e+07 3.40849e+06 2 100 -85.9288 53.3368
22 -1.07238e+07 3.40849e+06 2 105 -86.0937 151.847
23 -1.07238e+07 3.40848e+06 2 110 -82.3928 17.0873
24 -1.07238e+07 3.40848e+06 2 115 -82.5979 68.2927
25 -1.07238e+07 3.40848e+06 2 120 -87.9426 -102.175
26 -1.07238e+07 3.40847e+06 2 125 -80.608 -42.7723
27 -1.07238e+07 3.40847e+06 2 130 -85.1571 -29.3759
28 -1.07238e+07 3.40847e+06 2 135 -91.2496 -58.5782
29 -1.07238e+07 3.40846e+06 2 140 -87.4358 -118.669
30 -1.07238e+07 3.40846e+06 2 145 -86.1577 -171.821
31 -1.07238e+07 3.40846e+06 2 150 -91.0522 169.994
32 -1.07238e+07 3.40845e+06 2 155 -92.683 98.1923
33 -1.07238e+07 3.40845e+06 2 160 -89.4553 27.7712
34 -1.07238e+07 3.40845e+06 2 165 -90.1206 -40.6995
35 -1.07238e+07 3.40844e+06 2 170 -82.4159 6.83618
36 -1.07238e+07 3.40844e+06 2 175 -79.9099 -139.437
37 -1.07238e+07 3.40844e+06 2 180 -79.6726 -107.147
38 -1.07238e+07 3.40843e+06 2 185 -88.76 -69.153
39 -1.07239e+07 3.40843e+06 2 190 -86.2599 -8.20992
40 -1.07239e+07 3.40843e+06 2 195 -89.3218 4.38066
41 -1.07239e+07 3.40842e+06 2 200 -85.0745 -90.954
42 -1.07239e+07 3.40842e+06 2 205 -87.628 -143.005
43 -1.07239e+07 3.40842e+06 2 210 -77.5122 155.939
44 -1.07239e+07 3.40841e+06 2 215 -97.5394 -112.725
45 -1.07239e+07 3.40841e+06 2 220 -75.1796 -58.8156
46 -1.07239e+07 3.40841e+06 2 225 -113.658 -156.313
47 -1.07239e+07 3.4084e+06 2 230 -71.8548 46.5417
48 -1.07239e+07 3.4084e+06 2 235 -76.5089 -19.4396
49 -1.07239e+07 3.4084e+06 2 240 -86.1881 125.489
50 -1.07239e+07 3.40839e+06 2 245 -83.8499 100.492
51 -1.07239e+07 3.40839e+06 2 250 -87.7356 102.951
52 -1.07239e+07 3.40839e+06 2 255 -87.2215 -179.713
53 -1.07239e+07 3.40838e+06 2 260 -83.8305 159.82
54 -1.07239e+07 3.40838e+06 2 265 -79.1859 -129.673
55 -1.07239e+07 3.40838e+06 2 270 -70.8663 39.2848
56 -1.07239e+07 3.40838e+06 2 275 -75.9007 95.7695
57 -1.07239e+07 3.40837e+06 2 280 -72.1297 86.6559
58 -1.07239e+07 3.40837e+06 2 285 -65.7165 -14.7015
59 -1.07239e+07 3.40837e+06 2 290 -75.9115 -44.5476
60 -1.07239e+07 3.40836e+06 2 295 -74.9133 -65.7601
61 -1.07239e+07 3.40836e+06 2 300 -72.4304 -164.645
62 -1.07239e+07 3.40836e+06 2 305 -64.4229 24.667
63 -1.07239e+07 3.40835e+06 2 310 -64.2827 129.804
64 -1.07239e+07 3.40835e+06 2 315 -59.5123 3.57921
65 -1.07239e+07 3.40835e+06 2 320 -54.9196 -73.8579
66 -1.0724e+07 3.40834e+06 2 325 -50.3963 165.56
67 -1.0724e+07 3.40834e+06 2 330 -44.1131 -141.897
68 -1.0724e+07 3.40834e+06 2 335 -39.263 -65.1861
69 -1.0724e+07 3.40834e+06 2 340 -37.3761 -58.1739
70 -1.0724e+07 3.40834e+06 2 345 -38.5646 22.0047
71 -1.0724e+07 3.40834e+06 2 350 -40.0942 83.0792
72 -1.0724e+07 3.40835e+06 2 355 -40.8725 131.095
73 -1.0724e+07 3.40835e+06 2 360 -42.0028 161.322
74 -1.0724e+07 3.40836e+06 2 365 -43.1296 -170.68
75 -1.0724e+07 3.40836e+06 2 370 -42.9988 -146.659
76 -1.0724e+07 3.40836e+06 2 375 -44.4018 -133.237
77 -1.0724e+07 3.40837e+06 2 380 -46.1612 -104.019
78 -1.0724e+07 3.40837e+06 2 385 -44.5914 -108.974
79 -1.0724e+07 3.40837e+06 2 390 -45.7114 -78.9508
80 -1.0724e+07 3.40838e+06 2 395 -47.9014 -83.4579
81 -1.0724e+07 3.40838e+06 2 400 -46.4294 -99.0987
82 -1.0724e+07 3.40839e+06 2 405 -46.7222 -64.178
83 -1.0724e+07 3.40839e+06 2 410 -48.7169 -53.8997
84 -1.0724e+07 3.40839e+06 2 415 -45.3204 -167.227
85 -1.0724e+07 3.40839e+06 2 420 -48.871 -33.5349
86 -1.0724e+07 3.40838e+06 2 425 -80.5272 -114.216
87 -1.0724e+07 3.40838e+06 2 430 -67.9824 -80.1902
88 -1.0724e+07 3.40838e+06 2 435 -66.8027 143.018
89 -1.0724e+07 3.40837e+06 2 440 -76.1962 -135.605
90 -1.0724e+07 3.40837e+06 2 445 -88.2122 122.915
91 -1.0724e+07 3.40837e+06 2 450 -84.8111 174.588
92 -1.0724e+07 3.40837e+06 2 455 -87.7599 -128.9
93 -1.0724e+07 3.40837e+06 2 460 -91.5015 133.047
94 -1.07241e+07 3.40837e+06 2 465 -78.0461 -102.885
95 -1.07241e+07 3.40837e+06 2 470 -74.5585 -163.035
96 -1.07241e+07 3.40837e+06 2 475 -71.5265 15.2576
97 -1.07241e+07 3.40837e+06 2 480 -80.6205 -67.5616
98 -1.07241e+07 3.40837e+06 2 485 -89.0404 -143.046
99 -1.07241e+07 3.40836e+06 2 490 -83.3168 -163.462
100 -1.07241e+07 3.40836e+06 2 495 -92.3485 128.42
101 -1.07241e+07 3.40836e+06 2 500 -99.3506 -4.39036
102 -1.07241e+07 3.40836e+06 2 505 -86.1865 -145.029
103 -1.07241e+07 3.40836e+06 2 510 -89.3617 -66.6621
104 -1.07241e+07 3.40836e+06 2 515 -85.2605 4.03326
105 -1.07241e+07 3.40836e+06 2 520 -84.6674 22.6656
106 -1.07241e+07 3.40836e+06 2 525 -85.3467 -21.9627
107 -1.07241e+07 3.40836e+06 2 530 -103.439 17.802
108 -1.07241e+07 3.40836e+06 2 535 -94.035 -39.4097
109 -1.07241e+07 3.40836e+06 2 540 -92.1224 8.94742
110 -1.07241e+07 3.40836e+06 2 545 -97.5415 57.1037
111 -1.07241e+07 3.40836e+06 2 550 -103.498 23.9617
112 -1.07241e+07 3.40836e+06 2 555 -105.291 -76.3239
113 -1.07241e+07 3.40836e+06 2 560 -107.197 -121.514
114 -1.07242e+07 3.40836e+06 2 565 -104.402 86.4496
115 -1.07242e+07 3.40836e+06 2 570 -106.787 -141.568
116 -1.07242e+07 3.40835e+06 2 575 -102.937 93.2885
117 -1.07242e+07 3.40835e+06 2 580 -102.71 -117.006
118 -1.07242e+07 3.40835e+06 2 585 -110.285 35.3398
119 -1.07242e+07 3.40834e+06 2 590 -102.17 115.519
120 -1.07242e+07 3.40834e+06 2 595 -113.089 111.891
121 -1.07242e+07 3.40834e+06 2 600 -110.148 -125.063
122 -1.07242e+07 3.40834e+06 2 605 -106.153 92.474
123 -1.07242e+07 3.40833e+06 2 610 -136.945 26.8308
124 -1.07242e+07 3.40833e+06 2 615 -129.852 41.706
125 -1.07242e+07 3.40833e+06 2 620 -100.992 105.411
126 -1.07242e+07 3.40832e+06 2 625 -141.284 -145.165
127 -1.07242e+07 3.40832e+06 2 630 -123.645 -36.8502
128 -1.07242e+07 3.40832e+06 2 635 -133.487 -43.789
129 -1.07242e+07 3.40831e+06 2 640 -124.01 90.5322
130 -1.07242e+07 3.40832e+06 2 645 -123.583 -175.108
131 -1.07242e+07 3.40832e+06 2 650 -133.7 178.09
132 -1.07242e+07 3.40832e+06 2 655 -127.735 44.2189
133 -1.07242e+07 3.40833e+06 2 660 -111.82 -69.3573
134 -1.07242e+07 3.40833e+06 2 665 -114.446 72.4738
135 -1.07242e+07 3.40834e+06 2 670 -111.785 71.1784
136 -1.07242e+07 3.40834e+06 2 675 -132.673 104.65
137 -1.07242e+07 3.40834e+06 2 680 -133.377 141.25
138 -1.07242e+07 3.40835e+06 2 685 -136.25 154.098
139 -1.07242e+07 3.40835e+06 2 690 -137.915 170.071
140 -1.07242e+07 3.40835e+06 2 695 -116.606 -61.9938
141 -1.07242e+07 3.40836e+06 2 700 -130.087 -163.42
142 -1.07243e+07 3.40836e+06 2 705 -130.081 -129.837
143 -1.07243e+07 3.40837e+06 2 710 -131.108 -102.43
144 -1.07243e+07 3.40837e+06 2 715 -132.24 -68.9152
145 -1.07243e+07 3.40837e+06 2 720 -138.42 -52.479
146 -1.07243e+07 3.40838e+06 2 725 -133.668 -94.1886
147 -1.07243e+07 3.40838e+06 2 730 -136.254 -69.2928
148 -1.07243e+07 3.40839e+06 2 735 -136.143 -80.0925
149 -1.07243e+07 3.40839e+06 2 740 -134.709 -68.9182
150 -1.07243e+07 3.40839e+06 2 745 -136.078 -53.19
151 -1.07243e+07 3.4084e+06 2 750 -136.276 -44.5824
152 -1.07243e+07 3.4084e+06 2 755 -135.957 -38.954
153 -1.07243e+07 3.4084e+06 2 760 -115.095 11.8433
154 -1.07243e+07 3.40841e+06 2 765 -136.763 -28.2105
155 -1.07243e+07 3.40841e+06 2 770 -137.122 -14.0609
156 -1.07243e+07 3.40842e+06 2 775 -107.29 -48.1117
157 -1.07243e+07 3.40842e+06 2 780 -140.722 -67.0294
158 -1.07243e+07 3.40842e+06 2 785 -120.935 -82.4086
