#Rx
# X(m), Y(m), Z(m), Distance(m), Power (dBm) Phase (deg) EQ_1_H_Rx3_900 MHz_Tx1
1 -1.07237e+07 3.40856e+06 2 0 -92.0359 -7.89835
2 -1.07237e+07 3.40856e+06 2 5 -92.7477 69.3231
3 -1.07237e+07 3.40856e+06 2 10 -91.8132 127.787
4 -1.07237e+07 3.40856e+06 2 15 -92.284 143.637
5 -1.07237e+07 3.40857e+06 2 20 -92.0902 119.942
6 -1.07237e+07 3.40857e+06 2 25 -91.5066 53.6142
7 -1.07237e+07 3.40857e+06 2 30 -101.019 -166.071
8 -1.07237e+07 3.40858e+06 2 35 -94.1768 -51.105
9 -1.07237e+07 3.40858e+06 2 40 -90.9842 83.5012
10 -1.07237e+07 3.40858e+06 2 45 -86.5195 -165.508
11 -1.07237e+07 3.40858e+06 2 50 -91.0759 -160.602
12 -1.07238e+07 3.40859e+06 2 55 -91.1872 -145.506
13 -1.07238e+07 3.40859e+06 2 60 -92.4525 161.441
14 -1.07238e+07 3.40859e+06 2 65 -90.9619 35.7463
15 -1.07238e+07 3.4086e+06 2 70 -92.627 -130.11
16 -1.07238e+07 3.4086e+06 2 75 -82.6223 -103.318
17 -1.07238e+07 3.4086e+06 2 80 -84.2478 -126.003
18 -1.07238e+07 3.4086e+06 2 85 -84.9378 104.471
19 -1.07238e+07 3.40861e+06 2 90 -96.8289 63.9179
20 -1.07238e+07 3.40861e+06 2 95 -104.783 152.683
21 -1.07238e+07 3.40861e+06 2 100 -105.706 86.584
22 -1.07238e+07 3.40862e+06 2 105 -102.266 -0.737613
23 -1.07238e+07 3.40862e+06 2 110 -105.371 20.5059
24 -1.07238e+07 3.40862e+06 2 115 -76.9464 -43.4047
25 -1.07238e+07 3.40862e+06 2 120 -75.6383 56.4894
26 -1.07238e+07 3.40863e+06 2 125 -103.51 90.7898
27 -1.07238e+07 3.40863e+06 2 130 -98.473 -38.3171
28 -1.07238e+07 3.40863e+06 2 135 -95.106 -52.3611
29 -1.07238e+07 3.40864e+06 2 140 -90.3932 66.791
30 -1.07238e+07 3.40864e+06 2 145 -88.6446 14.7022
31 -1.07238e+07 3.40864e+06 2 150 -86.3013 76.3259
32 -1.07238e+07 3.40864e+06 2 155 -64.8257 -130.006
33 -1.07238e+07 3.40865e+06 2 160 -63.6524 146.705
34 -1.07238e+07 3.40865e+06 2 165 -85.8612 -77.6324
35 -1.07238e+07 3.40865e+06 2 170 -84.2258 69.8822
36 -1.07238e+07 3.40866e+06 2 175 -60.1003 161.73
37 -1.07239e+07 3.40866e+06 2 180 -58.9171 120.978
38 -1.07239e+07 3.40866e+06 2 185 -85.5218 -38.8454
39 -1.07239e+07 3.40866e+06 2 190 -57.7409 -41.7476
40 -1.07239e+07 3.40867e+06 2 195 -57.7189 -163.683
41 -1.07239e+07 3.40867e+06 2 200 -57.9264 171.795
42 -1.07239e+07 3.40867e+06 2 205 -58.3707 -111.636
43 -1.07239e+07 3.40867e+06 2 210 -58.6331 -161.575
44 -1.07239e+07 3.40867e+06 2 215 -58.6716 -99.3158
45 -1.07239e+07 3.40867e+06 2 220 -58.9918 -102.559
46 -1.07239e+07 3.40866e+06 2 225 -85.5048 17.4653
47 -1.07239e+07 3.40866e+06 2 230 -86.6891 134.527
48 -1.07239e+07 3.40866e+06 2 235 -85.8961 171.866
49 -1.07239e+07 3.40865e+06 2 240 -84.2595 52.6116
50 -1.07239e+07 3.40865e+06 2 245 -86.8246 155.394
51 -1.07239e+07 3.40865e+06 2 250 -84.2324 74.5923
52 -1.07239e+07 3.40864e+06 2 255 -83.6149 131.435
53 -1.07239e+07 3.40864e+06 2 260 -79.0143 -70.9173
54 -1.07239e+07 3.40864e+06 2 265 -65.2976 104.592
55 -1.07239e+07 3.40863e+06 2 270 -69.6393 -169.94
56 -1.07239e+07 3.40863e+06 2 275 -80.3676 -111.422
57 -1.07239e+07 3.40863e+06 2 280 -79.2833 4.87881
58 -1.07239e+07 3.40862e+06 2 285 -77.2789 -16.0006
59 -1.07239e+07 3.40862e+06 2 290 -76.562 150.841
60 -1.07239e+07 3.40862e+06 2 295 -75.6407 102.236
61 -1.07239e+07 3.40861e+06 2 300 -73.842 -170.398
62 -1.07239e+07 3.40861e+06 2 305 -70.7256 66.6226
63 -1.0724e+07 3.40861e+06 2 310 -68.1598 132.238
64 -1.0724e+07 3.4086e+06 2 315 -107.227 47.7501
65 -1.0724e+07 3.4086e+06 2 320 -109.428 86.0608
66 -1.0724e+07 3.4086e+06 2 325 -109.013 167.331
67 -1.0724e+07 3.4086e+06 2 330 -102.105 -54.0306
68 -1.0724e+07 3.4086e+06 2 335 -108.035 40.3806
69 -1.0724e+07 3.40861e+06 2 340 -105.893 -13.4428
70 -1.0724e+07 3.40861e+06 2 345 -110.527 -55.5453
71 -1.0724e+07 3.40861e+06 2 350 -107.048 -108.775
72 -1.0724e+07 3.40862e+06 2 355 -122.854 -179.622
73 -1.0724e+07 3.40862e+06 2 360 -121.88 27.1138
74 -1.0724e+07 3.40862e+06 2 365 -120.987 -132.102
75 -1.0724e+07 3.40863e+06 2 370 -72.7849 19.2967
76 -1.0724e+07 3.40863e+06 2 375 -73.4771 -158.401
77 -1.0724e+07 3.40864e+06 2 380 -73.9485 6.57059
78 -1.0724e+07 3.40864e+06 2 385 -74.9256 155.902
79 -1.0724e+07 3.40864e+06 2 390 -75.4444 -67.94
80 -1.0724e+07 3.40865e+06 2 395 -75.9939 56.5662
81 -1.0724e+07 3.40865e+06 2 400 -76.5727 171.349
82 -1.0724e+07 3.40865e+06 2 405 -77.1283 -82.9289
83 -1.0724e+07 3.40866e+06 2 410 -77.6647 13.7454
84 -1.0724e+07 3.40866e+06 2 415 -77.9459 106.263
85 -1.0724e+07 3.40866e+06 2 420 -78.4245 -171.211
86 -1.0724e+07 3.40867e+06 2 425 -79.2046 -92.9503
87 -1.0724e+07 3.40867e+06 2 430 -79.5325 -20.3753
88 -1.0724e+07 3.40867e+06 2 435 -79.9313 48.8049
89 -1.0724e+07 3.40868e+06 2 440 -80.3668 109.628
90 -1.07241e+07 3.40868e+06 2 445 -80.5817 170.675
91 -1.07241e+07 3.40868e+06 2 450 -80.9586 -132.683
92 -1.07241e+07 3.40869e+06 2 455 -81.0547 -81.7023
93 -1.07241e+07 3.40869e+06 2 460 -80.4929 171.708
94 -1.07241e+07 3.40868e+06 2 465 -86.1228 -31.999
95 -1.07241e+07 3.40868e+06 2 470 -79.7456 67.9546
96 -1.07241e+07 3.40868e+06 2 475 -104.041 -62.9905
97 -1.07241e+07 3.40867e+06 2 480 -113.714 148.141
98 -1.07241e+07 3.40867e+06 2 485 -117.139 89.1253
99 -1.07241e+07 3.40867e+06 2 490 -122.039 140.592
100 -1.07241e+07 3.40866e+06 2 495 -124.983 48.8911
101 -1.07241e+07 3.40866e+06 2 500 -125.224 -126.806
102 -1.07241e+07 3.40866e+06 2 505 -127.548 59.1625
103 -1.07241e+07 3.40865e+06 2 510 -131.112 110.311
104 -1.07241e+07 3.40865e+06 2 515 -131.371 -178.483
105 -1.07241e+07 3.40865e+06 2 520 -133.49 -116.092
106 -1.07241e+07 3.40864e+06 2 525 -134.706 -65.0181
107 -1.07241e+07 3.40864e+06 2 530 -136.182 -23.6559
108 -1.07241e+07 3.40864e+06 2 535 -137.087 -5.77567
109 -1.07241e+07 3.40863e+06 2 540 -139.039 20.2573
110 -1.07241e+07 3.40863e+06 2 545 -143.031 -153.599
111 -1.07241e+07 3.40863e+06 2 550 -133.61 32.0461
112 -1.07241e+07 3.40863e+06 2 555 -135.595 88.9701
113 -1.07241e+07 3.40862e+06 2 560 -135.51 76.0787
114 -1.07241e+07 3.40862e+06 2 565 -151.258 -80.5794
115 -1.07241e+07 3.40862e+06 2 570 -141.505 74.1027
116 -1.07242e+07 3.40861e+06 2 575 -144.585 116.473
117 -1.07242e+07 3.40861e+06 2 580 -133.111 -87.4437
118 -1.07242e+07 3.40861e+06 2 585 -132.459 105.427
119 -1.07242e+07 3.4086e+06 2 590 -133.962 -133.472
120 -1.07242e+07 3.4086e+06 2 595 -140.419 172.254
121 -1.07242e+07 3.4086e+06 2 600 -144.067 -154.924
122 -1.07242e+07 3.40859e+06 2 605 -121.332 -118.268
123 -1.07242e+07 3.40859e+06 2 610 -133.708 -30.2757
124 -1.07242e+07 3.40859e+06 2 615 -124.945 -179.67
125 -1.07242e+07 3.40858e+06 2 620 -134.49 15.3364
126 -1.07242e+07 3.40858e+06 2 625 -140.041 98.7938
127 -1.07242e+07 3.40858e+06 2 630 -132.404 154.954
128 -1.07242e+07 3.40857e+06 2 635 -128.761 -110.162
129 -1.07242e+07 3.40857e+06 2 640 -138.391 122.172
130 -1.07242e+07 3.40857e+06 2 645 -138.82 -155.539
131 -1.07242e+07 3.40857e+06 2 650 -138.516 -177.472
132 -1.07242e+07 3.40856e+06 2 655 -137.123 65.1782
133 -1.07242e+07 3.40856e+06 2 660 -149.311 -152.795
134 -1.07242e+07 3.40856e+06 2 665 -152.712 -146.438
135 -1.07242e+07 3.40855e+06 2 670 -153.319 -151.715
136 -1.07242e+07 3.40855e+06 2 675 -135.774 48.0003
137 -1.07242e+07 3.40855e+06 2 680 -137.41 13.3343
138 -1.07242e+07 3.40854e+06 2 685 -130.68 -142.663
139 -1.07242e+07 3.40854e+06 2 690 -130.46 -73.5099
140 -1.07242e+07 3.40854e+06 2 695 -130.771 60.06
141 -1.07242e+07 3.40853e+06 2 700 -131.345 139.772
142 -1.07243e+07 3.40853e+06 2 705 -160.193 147.062
143 -1.07243e+07 3.40853e+06 2 710 -151.102 -97.9554
144 -1.07243e+07 3.40852e+06 2 715 -153.752 -171.998
145 -1.07243e+07 3.40852e+06 2 720 -157.734 171.81
146 -1.07243e+07 3.40852e+06 2 725 -156.408 -177.237
147 -1.07243e+07 3.40852e+06 2 730 -156.67 179.83
148 -1.07243e+07 3.40851e+06 2 735 -156.928 176.801
149 -1.07243e+07 3.40851e+06 2 740 -139.863 78.5268
150 -1.07243e+07 3.40851e+06 2 745 -148.675 -127.699
151 -1.07243e+07 3.4085e+06 2 750 -142.939 -43.8355
152 -1.07243e+07 3.4085e+06 2 755 -141.552 -27.9747
153 -1.07243e+07 3.4085e+06 2 760 -148.832 15.3822
154 -1.07243e+07 3.40849e+06 2 765 -148.499 -26.9237
155 -1.07243e+07 3.40849e+06 2 770 -147.085 -82.7811
156 -1.07243e+07 3.40849e+06 2 775 -159.06 -160.861
157 -1.07243e+07 3.40848e+06 2 780 -159.043 146.001
158 -1.07243e+07 3.40848e+06 2 785 -159.258 142.254
159 -1.07243e+07 3.40848e+06 2 790 -137.456 -84.6577
160 -1.07243e+07 3.40847e+06 2 795 -136.771 -164.71
161 -1.07243e+07 3.40847e+06 2 800 -134.771 126.05
162 -1.07243e+07 3.40847e+06 2 805 -136.302 12.3005
163 -1.07243e+07 3.40846e+06 2 810 -158.532 82.4016
164 -1.07243e+07 3.40846e+06 2 815 -156.061 139.156
165 -1.07243e+07 3.40846e+06 2 820 -161.551 57.1768
166 -1.07243e+07 3.40845e+06 2 825 -167.506 -28.9095
167 -1.07243e+07 3.40845e+06 2 830 -162.095 -125.117
168 -1.07243e+07 3.40845e+06 2 835 -146.76 66.7356
169 -1.07243e+07 3.40844e+06 2 840 -148.181 -154.753
170 -1.07243e+07 3.40844e+06 2 845 -147.546 -103.273
171 -1.07243e+07 3.40844e+06 2 850 -145.753 -96.6202
172 -1.07243e+07 3.40843e+06 2 855 -250 0
173 -1.07243e+07 3.40843e+06 2 860 -250 0
