#Rx
# X(m), Y(m), Z(m), Distance(m), Power (dBm) Phase (deg)
1 -1.07237e+07 3.40855e+06 2 0 -135.258 -26.3273
2 -1.07237e+07 3.40855e+06 2 5 -134.705 159.792
3 -1.07237e+07 3.40855e+06 2 10 -134.461 -20.6644
4 -1.07237e+07 3.40854e+06 2 15 -134.35 154.412
5 -1.07237e+07 3.40854e+06 2 20 -135.735 -26.834
6 -1.07237e+07 3.40854e+06 2 25 -135.432 166.838
7 -1.07237e+07 3.40853e+06 2 30 -134.788 -24.338
8 -1.07237e+07 3.40853e+06 2 35 -133.547 139.487
9 -1.07237e+07 3.40853e+06 2 40 -134.061 -61.4287
10 -1.07237e+07 3.40852e+06 2 45 -136.015 101.806
11 -1.07237e+07 3.40852e+06 2 50 -135.428 -89.9312
12 -1.07237e+07 3.40852e+06 2 55 -133.256 62.8945
13 -1.07238e+07 3.40851e+06 2 60 -133.099 -148.012
14 -1.07238e+07 3.40851e+06 2 65 -134.997 -3.26204
15 -1.07238e+07 3.40851e+06 2 70 -133.965 141.671
16 -1.07238e+07 3.4085e+06 2 75 -132.956 -83.6349
17 -1.07238e+07 3.4085e+06 2 80 -128.783 36.2175
18 -1.07238e+07 3.4085e+06 2 85 -130.665 147.199
19 -1.07238e+07 3.4085e+06 2 90 -132.431 -68.327
20 -1.07238e+07 3.40849e+06 2 95 -124.732 73.557
21 -1.07238e+07 3.40849e+06 2 100 -123.975 167.914
22 -1.07238e+07 3.40849e+06 2 105 -125.353 164.949
23 -1.07238e+07 3.40848e+06 2 110 -121.724 -24.4558
24 -1.07238e+07 3.40848e+06 2 115 -119.434 68.8758
25 -1.07238e+07 3.40848e+06 2 120 -120.054 -16.1055
26 -1.07238e+07 3.40847e+06 2 125 -119.878 -174.585
27 -1.07238e+07 3.40847e+06 2 130 -120.307 116.653
28 -1.07238e+07 3.40847e+06 2 135 -119.263 -35.464
29 -1.07238e+07 3.40846e+06 2 140 -123.717 -126.156
30 -1.07238e+07 3.40846e+06 2 145 -122.528 68.8814
31 -1.07238e+07 3.40846e+06 2 150 -120.074 -21.8714
32 -1.07238e+07 3.40845e+06 2 155 -125.443 -150.07
33 -1.07238e+07 3.40845e+06 2 160 -121.05 41.1415
34 -1.07238e+07 3.40845e+06 2 165 -118.116 -60.7006
35 -1.07238e+07 3.40844e+06 2 170 -120.399 -160.053
36 -1.07238e+07 3.40844e+06 2 175 -130.037 -4.44121
37 -1.07238e+07 3.40844e+06 2 180 -125.044 -132.571
38 -1.07238e+07 3.40843e+06 2 185 -119.34 72.9291
39 -1.07239e+07 3.40843e+06 2 190 -118.082 -77.1892
40 -1.07239e+07 3.40843e+06 2 195 -121.471 110.405
41 -1.07239e+07 3.40842e+06 2 200 -124.287 -27.7584
42 -1.07239e+07 3.40842e+06 2 205 -118.633 -171.339
43 -1.07239e+07 3.40842e+06 2 210 -114.077 43.1577
44 -1.07239e+07 3.40841e+06 2 215 -114.973 174.373
45 -1.07239e+07 3.40841e+06 2 220 -111.304 47.9653
46 -1.07239e+07 3.40841e+06 2 225 -111.543 -153.592
47 -1.07239e+07 3.4084e+06 2 230 -110.036 -160.16
48 -1.07239e+07 3.4084e+06 2 235 -103.156 153.509
49 -1.07239e+07 3.4084e+06 2 240 -106.007 173.922
50 -1.07239e+07 3.40839e+06 2 245 -117.636 30.1564
51 -1.07239e+07 3.40839e+06 2 250 -109.999 145.182
52 -1.07239e+07 3.40839e+06 2 255 -112.279 -132.362
53 -1.07239e+07 3.40838e+06 2 260 -113.971 -35.8941
54 -1.07239e+07 3.40838e+06 2 265 -116.777 -67.405
55 -1.07239e+07 3.40838e+06 2 270 -117.138 -55.5963
56 -1.07239e+07 3.40837e+06 2 275 -111.223 -57.0673
57 -1.07239e+07 3.40837e+06 2 280 -110.452 -53.2134
58 -1.07239e+07 3.40837e+06 2 285 -115.649 126.945
59 -1.07239e+07 3.40836e+06 2 290 -105.104 -71.7156
60 -1.07239e+07 3.40836e+06 2 295 -98.2299 -10.8822
61 -1.07239e+07 3.40836e+06 2 300 -104.538 20.7718
62 -1.07239e+07 3.40835e+06 2 305 -110.475 58.8223
63 -1.07239e+07 3.40835e+06 2 310 -101.599 11.7991
64 -1.07239e+07 3.40835e+06 2 315 -92.986 -111.189
65 -1.07239e+07 3.40834e+06 2 320 -86.0903 -37.0512
66 -1.0724e+07 3.40834e+06 2 325 -73.6265 174.661
67 -1.0724e+07 3.40834e+06 2 330 -61.8878 16.3724
68 -1.0724e+07 3.40833e+06 2 335 -56.3804 -73.306
69 -1.0724e+07 3.40833e+06 2 340 -54.8934 -40.5311
70 -1.0724e+07 3.40833e+06 2 345 -57.5335 36.7326
71 -1.0724e+07 3.40832e+06 2 350 -75.0419 -103.527
72 -1.0724e+07 3.40832e+06 2 355 -77.0924 148.681
73 -1.0724e+07 3.40832e+06 2 360 -80.2341 -166.305
74 -1.0724e+07 3.40832e+06 2 365 -87.835 103.922
75 -1.0724e+07 3.40831e+06 2 370 -92.7606 -152.045
76 -1.0724e+07 3.40831e+06 2 375 -92.3729 104.01
77 -1.0724e+07 3.40831e+06 2 380 -91.1296 -167.302
78 -1.0724e+07 3.4083e+06 2 385 -94.5141 -166.982
79 -1.0724e+07 3.4083e+06 2 390 -99.9784 111.097
80 -1.0724e+07 3.4083e+06 2 395 -110.635 -173.469
81 -1.0724e+07 3.40829e+06 2 400 -103.053 -17.6143
82 -1.0724e+07 3.40829e+06 2 405 -119.629 8.98342
83 -1.0724e+07 3.40829e+06 2 410 -122.102 34.6199
84 -1.0724e+07 3.40828e+06 2 415 -126.842 53.8422
85 -1.0724e+07 3.40828e+06 2 420 -135.858 157.539
86 -1.0724e+07 3.40828e+06 2 425 -121.554 155.312
87 -1.0724e+07 3.40827e+06 2 430 -124.423 -80.5202
88 -1.0724e+07 3.40827e+06 2 435 -128.141 79.8895
89 -1.0724e+07 3.40827e+06 2 440 -127.017 -136.097
90 -1.0724e+07 3.40826e+06 2 445 -141.458 3.51004
91 -1.0724e+07 3.40826e+06 2 450 -132.694 -81.8063
92 -1.07241e+07 3.40826e+06 2 455 -119.724 -3.33325
93 -1.07241e+07 3.40825e+06 2 460 -129.611 79.4177
94 -1.07241e+07 3.40825e+06 2 465 -121.235 101.837
95 -1.07241e+07 3.40825e+06 2 470 -125.305 111.19
96 -1.07241e+07 3.40824e+06 2 475 -129.597 -124.427
97 -1.07241e+07 3.40824e+06 2 480 -122.267 33.4863
98 -1.07241e+07 3.40824e+06 2 485 -129.708 99.9443
99 -1.07241e+07 3.40823e+06 2 490 -121.957 69.4145
100 -1.07241e+07 3.40823e+06 2 495 -125.915 -93.1266
101 -1.07241e+07 3.40823e+06 2 500 -130.001 52.3066
102 -1.07241e+07 3.40822e+06 2 505 -137.779 -129.431
103 -1.07241e+07 3.40822e+06 2 510 -125.716 -141.714
104 -1.07241e+07 3.40822e+06 2 515 -132.158 -143.873
105 -1.07241e+07 3.40821e+06 2 520 -131.166 131.373
106 -1.07241e+07 3.40821e+06 2 525 -124.674 73.718
107 -1.07241e+07 3.40821e+06 2 530 -129.463 121.172
108 -1.07241e+07 3.4082e+06 2 535 -131.336 32.3086
109 -1.07241e+07 3.4082e+06 2 540 -127.957 -26.212
110 -1.07241e+07 3.4082e+06 2 545 -134.468 -140.174
111 -1.07241e+07 3.4082e+06 2 550 -125.701 -90.2006
112 -1.07241e+07 3.40821e+06 2 555 -132.369 -119.425
113 -1.07241e+07 3.40821e+06 2 560 -132.106 -57.1648
114 -1.07241e+07 3.40822e+06 2 565 -133.53 -139.83
115 -1.07241e+07 3.40822e+06 2 570 -141.979 72.7479
116 -1.07241e+07 3.40822e+06 2 575 -144.193 115.973
117 -1.07241e+07 3.40823e+06 2 580 -144.576 -168.055
118 -1.07241e+07 3.40823e+06 2 585 -148.221 -44.8989
119 -1.07241e+07 3.40824e+06 2 590 -140.44 173.879
120 -1.07242e+07 3.40824e+06 2 595 -139.608 157.675
121 -1.07242e+07 3.40824e+06 2 600 -141.461 65.1411
122 -1.07242e+07 3.40825e+06 2 605 -138.059 -77.131
123 -1.07242e+07 3.40825e+06 2 610 -138.034 25.6475
124 -1.07242e+07 3.40825e+06 2 615 -142.473 -125.593
125 -1.07242e+07 3.40826e+06 2 620 -167.478 -138.7
126 -1.07242e+07 3.40826e+06 2 625 -140.382 125.484
127 -1.07242e+07 3.40827e+06 2 630 -154.308 -14.3868
128 -1.07242e+07 3.40827e+06 2 635 -152.491 108.79
129 -1.07242e+07 3.40827e+06 2 640 -155.388 158.772
130 -1.07242e+07 3.40828e+06 2 645 -149.324 153.823
131 -1.07242e+07 3.40828e+06 2 650 -151.569 -8.97358
132 -1.07242e+07 3.40828e+06 2 655 -147.934 115.396
133 -1.07242e+07 3.40829e+06 2 660 -147.329 -166.782
134 -1.07242e+07 3.40829e+06 2 665 -152.617 30.2812
135 -1.07242e+07 3.4083e+06 2 670 -127.911 -56.7505
136 -1.07242e+07 3.4083e+06 2 675 -141.309 13.987
137 -1.07242e+07 3.4083e+06 2 680 -153.534 167.176
138 -1.07242e+07 3.40831e+06 2 685 -150.812 49.1787
139 -1.07242e+07 3.40831e+06 2 690 -187.385 -179.948
140 -1.07242e+07 3.40832e+06 2 695 -155.3 -115.496
141 -1.07242e+07 3.40832e+06 2 700 -153.798 -134.76
142 -1.07242e+07 3.40832e+06 2 705 -151.46 -78.1495
143 -1.07242e+07 3.40833e+06 2 710 -158.889 -71.5503
144 -1.07242e+07 3.40833e+06 2 715 -116.246 -123.008
145 -1.07242e+07 3.40833e+06 2 720 -117.752 82.26
146 -1.07242e+07 3.40834e+06 2 725 -186.788 -91.8902
147 -1.07242e+07 3.40834e+06 2 730 -194.398 128.675
148 -1.07242e+07 3.40835e+06 2 735 -192.159 -12.7417
149 -1.07242e+07 3.40835e+06 2 740 -191.372 170.355
150 -1.07242e+07 3.40835e+06 2 745 -132.898 157.386
151 -1.07243e+07 3.40836e+06 2 750 -187.401 132.872
152 -1.07243e+07 3.40836e+06 2 755 -179.116 -10.2865
153 -1.07243e+07 3.40837e+06 2 760 -194.195 -78.8119
154 -1.07243e+07 3.40837e+06 2 765 -182.108 109.862
155 -1.07243e+07 3.40837e+06 2 770 -180.454 122.48
156 -1.07243e+07 3.40838e+06 2 775 -180.822 96.8676
157 -1.07243e+07 3.40838e+06 2 780 -186.395 -116.138
158 -1.07243e+07 3.40838e+06 2 785 -183.057 -170.674
159 -1.07243e+07 3.40839e+06 2 790 -180.918 140.969
160 -1.07243e+07 3.40839e+06 2 795 -197.549 38.5899
161 -1.07243e+07 3.4084e+06 2 800 -197.051 -153.023
162 -1.07243e+07 3.4084e+06 2 805 -196.114 7.84722
163 -1.07243e+07 3.4084e+06 2 810 -128.31 60.9536
164 -1.07243e+07 3.40841e+06 2 815 -192.501 -48.6387
165 -1.07243e+07 3.40841e+06 2 820 -194.574 97.0174
166 -1.07243e+07 3.40842e+06 2 825 -124.858 -146.046
167 -1.07243e+07 3.40842e+06 2 830 -124.875 103.272
168 -1.07243e+07 3.40842e+06 2 835 -143.427 -79.3045
