#Rx
# X(m), Y(m), Z(m), Distance(m), Power (dBm) Phase (deg) EQ_1_H_Rx3_900 MHz_Tx3
1 -1.07237e+07 3.40856e+06 2 0 -107.372 5.87258
2 -1.07237e+07 3.40856e+06 2 5 -106.278 -0.114437
3 -1.07237e+07 3.40856e+06 2 10 -108.038 -11.5843
4 -1.07237e+07 3.40856e+06 2 15 -111.945 13.398
5 -1.07237e+07 3.40857e+06 2 20 -105.899 36.7598
6 -1.07237e+07 3.40857e+06 2 25 -105.918 12.8311
7 -1.07237e+07 3.40857e+06 2 30 -106.813 42.9749
8 -1.07237e+07 3.40858e+06 2 35 -104.662 22.9149
9 -1.07237e+07 3.40858e+06 2 40 -104.085 45.314
10 -1.07237e+07 3.40858e+06 2 45 -106.378 42.3148
11 -1.07237e+07 3.40858e+06 2 50 -105.863 30.1556
12 -1.07238e+07 3.40859e+06 2 55 -104.711 24.5147
13 -1.07238e+07 3.40859e+06 2 60 -104.548 35.9369
14 -1.07238e+07 3.40859e+06 2 65 -104.691 42.1195
15 -1.07238e+07 3.4086e+06 2 70 -106.274 45.6033
16 -1.07238e+07 3.4086e+06 2 75 -105.808 62.7735
17 -1.07238e+07 3.4086e+06 2 80 -108.988 70.0852
18 -1.07238e+07 3.4086e+06 2 85 -106.686 78.47
19 -1.07238e+07 3.40861e+06 2 90 -105.748 101.733
20 -1.07238e+07 3.40861e+06 2 95 -104.562 102.769
21 -1.07238e+07 3.40861e+06 2 100 -103.284 104.247
22 -1.07238e+07 3.40862e+06 2 105 -103.018 96.7566
23 -1.07238e+07 3.40862e+06 2 110 -101.53 101.387
24 -1.07238e+07 3.40862e+06 2 115 -88.1893 -153.439
25 -1.07238e+07 3.40862e+06 2 120 -88.8285 151.125
26 -1.07238e+07 3.40863e+06 2 125 -93.002 14.4335
27 -1.07238e+07 3.40863e+06 2 130 -89.879 89.5016
28 -1.07238e+07 3.40863e+06 2 135 -70.6346 -105.507
29 -1.07238e+07 3.40864e+06 2 140 -67.2482 -90.8487
30 -1.07238e+07 3.40864e+06 2 145 -64.8476 -168.465
31 -1.07238e+07 3.40864e+06 2 150 -65.6051 68.9344
32 -1.07238e+07 3.40864e+06 2 155 -69.3122 -128.102
33 -1.07238e+07 3.40865e+06 2 160 -62.6833 127.495
34 -1.07238e+07 3.40865e+06 2 165 -61.4796 99.8424
35 -1.07238e+07 3.40865e+06 2 170 -60.1335 -15.7768
36 -1.07238e+07 3.40866e+06 2 175 -61.7193 139.121
37 -1.07239e+07 3.40866e+06 2 180 -60.2058 -142.741
38 -1.07239e+07 3.40866e+06 2 185 -61.1836 -136.208
39 -1.07239e+07 3.40866e+06 2 190 -61.6918 142.659
40 -1.07239e+07 3.40867e+06 2 195 -64.2207 -40.3508
41 -1.07239e+07 3.40867e+06 2 200 -59.0625 62.7753
42 -1.07239e+07 3.40867e+06 2 205 -72.4502 -86.2429
43 -1.07239e+07 3.40867e+06 2 210 -58.9982 -126.323
44 -1.07239e+07 3.40867e+06 2 215 -62.5842 9.11364
45 -1.07239e+07 3.40867e+06 2 220 -57.486 147.808
46 -1.07239e+07 3.40866e+06 2 225 -61.4425 -59.149
47 -1.07239e+07 3.40866e+06 2 230 -57.7317 31.7034
48 -1.07239e+07 3.40866e+06 2 235 -59.0836 168.358
49 -1.07239e+07 3.40865e+06 2 240 -60.6439 -110.226
50 -1.07239e+07 3.40865e+06 2 245 -61.7682 -6.49146
51 -1.07239e+07 3.40865e+06 2 250 -59.9824 92.2864
52 -1.07239e+07 3.40864e+06 2 255 -61.0225 -176.256
53 -1.07239e+07 3.40864e+06 2 260 -58.8053 -102.139
54 -1.07239e+07 3.40864e+06 2 265 -60.6329 -53.1816
55 -1.07239e+07 3.40863e+06 2 270 -61.092 -5.29557
56 -1.07239e+07 3.40863e+06 2 275 -62.1418 27.8314
57 -1.07239e+07 3.40863e+06 2 280 -59.962 48.698
58 -1.07239e+07 3.40862e+06 2 285 -61.3941 44.5876
59 -1.07239e+07 3.40862e+06 2 290 -59.67 52.7161
60 -1.07239e+07 3.40862e+06 2 295 -60.6762 26.5876
61 -1.07239e+07 3.40861e+06 2 300 -59.8457 -9.60599
62 -1.07239e+07 3.40861e+06 2 305 -60.1253 -55.8667
63 -1.0724e+07 3.40861e+06 2 310 -63.0106 -118.953
64 -1.0724e+07 3.4086e+06 2 315 -69.1307 115.749
65 -1.0724e+07 3.4086e+06 2 320 -74.5008 -108.589
66 -1.0724e+07 3.4086e+06 2 325 -79.0296 -59.1253
67 -1.0724e+07 3.4086e+06 2 330 -98.1742 -127.999
68 -1.0724e+07 3.4086e+06 2 335 -98.8006 99.6886
69 -1.0724e+07 3.40861e+06 2 340 -110.516 -32.705
70 -1.0724e+07 3.40861e+06 2 345 -103.758 62.1803
71 -1.0724e+07 3.40861e+06 2 350 -100.997 176.037
72 -1.0724e+07 3.40862e+06 2 355 -96.8786 150.097
73 -1.0724e+07 3.40862e+06 2 360 -101.191 -97.4579
74 -1.0724e+07 3.40862e+06 2 365 -96.4337 175.38
75 -1.0724e+07 3.40863e+06 2 370 -96.1946 172.96
76 -1.0724e+07 3.40863e+06 2 375 -95.1869 77.0669
77 -1.0724e+07 3.40864e+06 2 380 -93.8058 131.554
78 -1.0724e+07 3.40864e+06 2 385 -94.8617 -21.8003
79 -1.0724e+07 3.40864e+06 2 390 -86.9599 39.5197
80 -1.0724e+07 3.40865e+06 2 395 -82.7301 -63.5542
81 -1.0724e+07 3.40865e+06 2 400 -76.2184 80.6361
82 -1.0724e+07 3.40865e+06 2 405 -73.4712 124.145
83 -1.0724e+07 3.40866e+06 2 410 -74.5482 107.098
84 -1.0724e+07 3.40866e+06 2 415 -73.5128 66.1451
85 -1.0724e+07 3.40866e+06 2 420 -73.1971 -43.72
86 -1.0724e+07 3.40867e+06 2 425 -71.7729 -132.534
87 -1.0724e+07 3.40867e+06 2 430 -72.8253 29.0575
88 -1.0724e+07 3.40867e+06 2 435 -75.8984 -134.197
89 -1.0724e+07 3.40868e+06 2 440 -72.2218 -23.5272
90 -1.07241e+07 3.40868e+06 2 445 -81.402 22.2387
91 -1.07241e+07 3.40868e+06 2 450 -74.0962 98.3256
92 -1.07241e+07 3.40869e+06 2 455 -90.6113 -26.9477
93 -1.07241e+07 3.40869e+06 2 460 -75.1039 -118.595
94 -1.07241e+07 3.40868e+06 2 465 -76.9333 -135.201
95 -1.07241e+07 3.40868e+06 2 470 -77.4699 -166.138
96 -1.07241e+07 3.40868e+06 2 475 -76.4342 148.723
97 -1.07241e+07 3.40867e+06 2 480 -74.8012 103.631
98 -1.07241e+07 3.40867e+06 2 485 -88.2127 -45.0243
99 -1.07241e+07 3.40867e+06 2 490 -96.5636 -23.74
100 -1.07241e+07 3.40866e+06 2 495 -99.4084 -115.143
101 -1.07241e+07 3.40866e+06 2 500 -101.86 81.0577
102 -1.07241e+07 3.40866e+06 2 505 -105.836 -139.351
103 -1.07241e+07 3.40865e+06 2 510 -104.674 -58.7108
104 -1.07241e+07 3.40865e+06 2 515 -108.071 21.5248
105 -1.07241e+07 3.40865e+06 2 520 -118.857 113.214
106 -1.07241e+07 3.40864e+06 2 525 -104.043 48.5167
107 -1.07241e+07 3.40864e+06 2 530 -102.618 118.396
108 -1.07241e+07 3.40864e+06 2 535 -101.459 21.4828
109 -1.07241e+07 3.40863e+06 2 540 -102.677 166.252
110 -1.07241e+07 3.40863e+06 2 545 -103.394 -93.5878
111 -1.07241e+07 3.40863e+06 2 550 -105.197 -162.301
112 -1.07241e+07 3.40863e+06 2 555 -95.5089 -17.8302
113 -1.07241e+07 3.40862e+06 2 560 -87.2164 -176.545
114 -1.07241e+07 3.40862e+06 2 565 -84.7733 -159.837
115 -1.07241e+07 3.40862e+06 2 570 -91.6839 -23.545
116 -1.07242e+07 3.40861e+06 2 575 -83.3851 117.459
117 -1.07242e+07 3.40861e+06 2 580 -90.3144 -64.3653
118 -1.07242e+07 3.40861e+06 2 585 -92.9111 55.0888
119 -1.07242e+07 3.4086e+06 2 590 -87.9851 -35.0372
120 -1.07242e+07 3.4086e+06 2 595 -87.0432 136.892
121 -1.07242e+07 3.4086e+06 2 600 -94.0775 11.0097
122 -1.07242e+07 3.40859e+06 2 605 -82.0418 120.984
123 -1.07242e+07 3.40859e+06 2 610 -85.3362 -95.7838
124 -1.07242e+07 3.40859e+06 2 615 -89.7275 -168.721
125 -1.07242e+07 3.40858e+06 2 620 -94.1628 96.1902
126 -1.07242e+07 3.40858e+06 2 625 -91.2427 -52.4861
127 -1.07242e+07 3.40858e+06 2 630 -83.6408 132.757
128 -1.07242e+07 3.40857e+06 2 635 -94.2109 39.9738
129 -1.07242e+07 3.40857e+06 2 640 -93.613 -131.406
130 -1.07242e+07 3.40857e+06 2 645 -103.061 -56.6443
131 -1.07242e+07 3.40857e+06 2 650 -102.889 -41.4301
132 -1.07242e+07 3.40856e+06 2 655 -110.627 -30.4488
133 -1.07242e+07 3.40856e+06 2 660 -106.385 35.3984
134 -1.07242e+07 3.40856e+06 2 665 -107.36 -5.5989
135 -1.07242e+07 3.40855e+06 2 670 -100.765 79.008
136 -1.07242e+07 3.40855e+06 2 675 -101.485 178.713
137 -1.07242e+07 3.40855e+06 2 680 -100.223 -149.493
138 -1.07242e+07 3.40854e+06 2 685 -102.371 156.305
139 -1.07242e+07 3.40854e+06 2 690 -118.286 30.4743
140 -1.07242e+07 3.40854e+06 2 695 -102.991 -110.15
141 -1.07242e+07 3.40853e+06 2 700 -116.909 -105.801
142 -1.07243e+07 3.40853e+06 2 705 -104.443 -154.133
143 -1.07243e+07 3.40853e+06 2 710 -107.602 -88.0871
144 -1.07243e+07 3.40852e+06 2 715 -104.736 -47.5613
145 -1.07243e+07 3.40852e+06 2 720 -110.482 -31.1966
146 -1.07243e+07 3.40852e+06 2 725 -109.498 -42.082
147 -1.07243e+07 3.40852e+06 2 730 -103.7 -8.90696
148 -1.07243e+07 3.40851e+06 2 735 -104.697 7.3329
149 -1.07243e+07 3.40851e+06 2 740 -107.266 -18.4887
150 -1.07243e+07 3.40851e+06 2 745 -107.431 30.2284
151 -1.07243e+07 3.4085e+06 2 750 -110.565 61.4399
152 -1.07243e+07 3.4085e+06 2 755 -105.779 70.6554
153 -1.07243e+07 3.4085e+06 2 760 -107.076 86.3354
154 -1.07243e+07 3.40849e+06 2 765 -110.187 111.052
155 -1.07243e+07 3.40849e+06 2 770 -111.105 88.0902
156 -1.07243e+07 3.40849e+06 2 775 -110.178 63.906
157 -1.07243e+07 3.40848e+06 2 780 -110.401 70.4678
158 -1.07243e+07 3.40848e+06 2 785 -103.901 95.7541
159 -1.07243e+07 3.40848e+06 2 790 -107.061 117.042
160 -1.07243e+07 3.40847e+06 2 795 -103.832 110.339
161 -1.07243e+07 3.40847e+06 2 800 -124.114 -14.8883
162 -1.07243e+07 3.40847e+06 2 805 -125.975 -7.89989
163 -1.07243e+07 3.40846e+06 2 810 -125.536 116.233
164 -1.07243e+07 3.40846e+06 2 815 -118.757 24.3834
165 -1.07243e+07 3.40846e+06 2 820 -124.342 -112.305
166 -1.07243e+07 3.40845e+06 2 825 -121.226 -126.646
167 -1.07243e+07 3.40845e+06 2 830 -131.945 -118.08
168 -1.07243e+07 3.40845e+06 2 835 -126.022 -93.5875
169 -1.07243e+07 3.40844e+06 2 840 -121.464 35.4229
170 -1.07243e+07 3.40844e+06 2 845 -117.513 169.811
171 -1.07243e+07 3.40844e+06 2 850 -103.793 85.2543
172 -1.07243e+07 3.40843e+06 2 855 -108.017 -159.805
173 -1.07243e+07 3.40843e+06 2 860 -111.431 15.559
